Time (s),Frequency (Hz)
15.30994140625,
15.36876953125,
15.802109375,
15.8041015625,
15.80509765625,
15.80609375,
15.9165234375,
15.91744140625,
15.9264453125,
15.99142578125,
15.99240234375,
16.20291015625,
16.21794921875,
16.21896484375,
16.21994140625,
16.29302734375,
16.29400390625,
16.29498046875,
16.33203125,
16.3330078125,
16.3530078125,
16.35400390625,
16.37595703125,
16.37794921875,
16.38201171875,
16.39099609375,
16.3969921875,
16.4059765625,
16.46802734375,
16.6555859375,
16.6565234375,
16.82509765625,
16.82609375,
16.82708984375,
16.8280859375,
16.84716796875,
16.89609375,
16.903046875,
16.908046875,
16.90904296875,
16.91001953125,
16.91099609375,
16.92001953125,
16.92099609375,
16.93904296875,
17.2072265625,
17.20818359375,
17.2241796875,
17.22513671875,
17.257109375,
17.2580859375,
17.25908203125,
17.26109375,
17.2630859375,
17.2641015625,
17.2651171875,
17.2661328125,
17.267109375,
17.26814453125,
17.269140625,
17.2701171875,
17.27111328125,
17.273125,
17.274140625,
17.27513671875,
17.27611328125,
17.2811328125,
17.28212890625,
17.28314453125,
17.284140625,
17.29017578125,
17.291171875,
17.2921875,
17.30015625,
17.30115234375,
17.3021484375,
17.30314453125,
17.31814453125,
17.319140625,
17.32013671875,
17.3211328125,
17.32615234375,
17.32716796875,
17.32814453125,
17.32916015625,
17.33015625,
17.33115234375,
17.33216796875,
17.3331640625,
17.33416015625,
17.33515625,
17.33615234375,
17.33716796875,
17.3391796875,
17.3401953125,
17.34119140625,
17.34220703125,
17.34318359375,
17.3441796875,
17.34517578125,
17.346171875,
17.3471875,
17.34818359375,
17.34916015625,
17.35017578125,
17.35115234375,
17.3521484375,
17.3531640625,
17.35416015625,
17.35517578125,
17.356171875,
17.3571484375,
17.3581640625,
17.3591796875,
17.36015625,
17.361171875,
17.36318359375,
17.3641796875,
17.36517578125,
17.366171875,
17.36716796875,
17.36818359375,
17.3691796875,
17.37015625,
17.371171875,
17.37216796875,
17.3731640625,
17.37416015625,
17.37517578125,
17.376171875,
17.37716796875,
17.3781640625,
17.37916015625,
17.38119140625,
17.3821875,
17.38318359375,
17.38419921875,
17.3851953125,
17.386171875,
17.3871875,
17.388203125,
17.38919921875,
17.3901953125,
17.39220703125,
17.39322265625,
17.3941796875,
17.39517578125,
17.39619140625,
17.39716796875,
17.39818359375,
17.405234375,
17.40625,
17.430234375,
17.43123046875,
17.43220703125,
17.440234375,
17.45216796875,
17.45318359375,
17.4631640625,
17.46513671875,
17.46912109375,
17.47009765625,
17.47107421875,
17.47208984375,
17.4730859375,
17.4741015625,
17.4780859375,
17.482109375,
17.48310546875,
17.484140625,
17.5141796875,
17.51515625,
17.516171875,
17.52615234375,
17.89708984375,
17.8990625,
17.910078125,
17.91810546875,
17.9241015625,
17.925078125,
17.92609375,
17.927109375,
17.93314453125,
17.93412109375,
17.93513671875,
17.96619140625,
17.9681640625,
17.96916015625,
17.976171875,
17.97716796875,
17.97818359375,
17.97916015625,
17.98015625,
17.9811328125,
17.98212890625,
17.983125,
17.9841015625,
17.98513671875,
18.01322265625,
18.01421875,
18.0392578125,
18.04025390625,
18.41884765625,
19.367578125,
19.44546875,
19.5715625,
19.637578125,
19.81962890625,
19.820625,
19.82162109375,
19.82263671875,
19.824609375,
19.82560546875,
19.82759765625,
19.82861328125,
19.829609375,
19.830625,
19.831640625,
19.83259765625,
19.83359375,
19.83458984375,
19.8355859375,
19.8366015625,
19.8376171875,
19.8386328125,
19.8396484375,
19.840625,
19.84162109375,
19.8426171875,
19.84361328125,
19.844609375,
19.8455859375,
19.84658203125,
19.847578125,
19.84857421875,
19.849609375,
19.85060546875,
19.8516015625,
19.85259765625,
19.85357421875,
19.8545703125,
19.855546875,
19.8565234375,
19.85751953125,
19.858515625,
19.85953125,
19.86357421875,
19.8655859375,
19.8666015625,
19.8676171875,
19.86859375,
19.869609375,
19.8705859375,
19.8715625,
19.87255859375,
19.8735546875,
19.8745703125,
19.8755859375,
19.87662109375,
19.8776171875,
19.8786328125,
19.879609375,
19.88060546875,
19.88158203125,
19.882578125,
19.88658203125,
19.88755859375,
19.88859375,
19.88955078125,
19.8905078125,
19.89146484375,
19.8924609375,
19.8934765625,
19.89447265625,
19.910625,
19.91166015625,
19.91275390625,
20.50150390625,
20.66326171875,
20.6753515625,
20.6773828125,
20.68037109375,
20.6813671875,
20.68232421875,
20.6833203125,
20.68533203125,
20.69033203125,
20.6923046875,
20.69328125,
20.694296875,
20.696328125,
20.69830078125,
20.699296875,
20.70029296875,
20.70126953125,
20.70228515625,
20.70326171875,
20.70427734375,
20.7052734375,
20.7062890625,
20.70728515625,
20.7083203125,
20.70931640625,
20.71029296875,
20.7112890625,
20.71228515625,
20.71328125,
20.7142578125,
20.7152734375,
20.7173046875,
20.7183203125,
20.71931640625,
20.72029296875,
20.72130859375,
20.722265625,
20.72330078125,
20.72431640625,
20.72529296875,
20.72630859375,
20.72732421875,
20.7283203125,
20.72931640625,
20.7303125,
20.73130859375,
20.7323046875,
20.73328125,
20.73427734375,
20.73529296875,
20.7362890625,
20.7373046875,
20.7383203125,
20.73931640625,
20.7403125,
20.7412890625,
20.74533203125,
20.746328125,
20.74732421875,
20.7483203125,
20.74931640625,
20.7503125,
20.751328125,
20.7523046875,
20.75330078125,
20.75630859375,
20.75732421875,
20.75833984375,
20.7593359375,
20.7603125,
20.761328125,
20.7623046875,
20.76330078125,
20.764296875,
20.766328125,
20.76732421875,
20.76833984375,
20.76931640625,
20.7703125,
20.77130859375,
20.7723046875,
20.77333984375,
20.77431640625,
20.77533203125,
20.776328125,
20.77734375,
20.77833984375,
20.77931640625,
20.78033203125,
20.781328125,
20.78234375,
20.7833203125,
20.78533203125,
20.78634765625,
20.78734375,
20.7883203125,
20.78931640625,
20.79029296875,
20.79130859375,
20.7933203125,
20.7943359375,
20.7953125,
20.796328125,
20.79732421875,
20.79826171875,
20.79931640625,
20.8003125,
20.8043359375,
20.80533203125,
20.80634765625,
20.80734375,
20.80833984375,
20.80931640625,
20.81033203125,
20.8153515625,
20.8163671875,
20.823359375,
20.824375,
20.82537109375,
20.82634765625,
20.82736328125,
20.829375,
21.1180859375,
21.1541015625,
21.15509765625,
21.15708984375,
21.1580859375,
21.16009765625,
21.16416015625,
21.17310546875,
21.1741015625,
21.17509765625,
21.17607421875,
21.6805859375,
22.31158203125,
22.31251953125,
22.32248046875,
22.3315234375,
22.3325,
22.3536328125,
22.354609375,
22.3816015625,
22.389609375,
22.3905859375,
22.3996484375,
22.40060546875,
22.40158203125,
22.40765625,
22.4176953125,
22.41869140625,
22.47578125,
22.48576171875,
22.48673828125,
22.487734375,
22.48869140625,
22.50474609375,
22.55771484375,
22.59474609375,
22.61078125,
22.6187890625,
22.6198046875,
22.62478515625,
22.62576171875,
22.62677734375,
22.62779296875,
22.62876953125,
22.63478515625,
22.63578125,
22.64578125,
22.646796875,
22.6537890625,
22.65478515625,
26.7559375,
26.75693359375,
26.7579296875,
26.75892578125,
26.7659375,
26.766953125,
26.76796875,
26.7779296875,
26.77892578125,
26.79291015625,
26.79392578125,
26.80994140625,
26.8109765625,
